Date:6 Feb 2023 18:54:35 GMT
 wavelen   Irradiance
   (nm)   uW/cm^2/nm
250.000   1.955e-002
250.100   1.967e-002
250.200   1.978e-002
250.300   1.990e-002
250.400   2.002e-002
250.500   2.013e-002
250.600   2.025e-002
250.700   2.037e-002
250.800   2.049e-002
250.900   2.061e-002
251.000   2.074e-002
251.100   2.086e-002
251.200   2.098e-002
251.300   2.111e-002
251.400   2.123e-002
251.500   2.136e-002
251.600   2.148e-002
251.700   2.161e-002
251.800   2.174e-002
251.900   2.187e-002
252.000   2.199e-002
252.100   2.212e-002
252.200   2.225e-002
252.300   2.239e-002
252.400   2.252e-002
252.500   2.265e-002
252.600   2.278e-002
252.700   2.292e-002
252.800   2.305e-002
252.900   2.319e-002
253.000   2.333e-002
253.100   2.346e-002
253.200   2.360e-002
253.300   2.374e-002
253.400   2.388e-002
253.500   2.402e-002
253.600   2.416e-002
253.700   2.430e-002
253.800   2.444e-002
253.900   2.459e-002
254.000   2.473e-002
254.100   2.487e-002
254.200   2.502e-002
254.300   2.516e-002
254.400   2.531e-002
254.500   2.546e-002
254.600   2.561e-002
254.700   2.576e-002
254.800   2.590e-002
254.900   2.606e-002
255.000   2.621e-002
255.100   2.636e-002
255.200   2.651e-002
255.300   2.666e-002
255.400   2.682e-002
255.500   2.697e-002
255.600   2.713e-002
255.700   2.728e-002
255.800   2.744e-002
255.900   2.760e-002
256.000   2.776e-002
256.100   2.792e-002
256.200   2.808e-002
256.300   2.824e-002
256.400   2.840e-002
256.500   2.856e-002
256.600   2.872e-002
256.700   2.889e-002
256.800   2.905e-002
256.900   2.922e-002
257.000   2.938e-002
257.100   2.955e-002
257.200   2.972e-002
257.300   2.989e-002
257.400   3.006e-002
257.500   3.022e-002
257.600   3.040e-002
257.700   3.057e-002
257.800   3.074e-002
257.900   3.091e-002
258.000   3.109e-002
258.100   3.126e-002
258.200   3.143e-002
258.300   3.161e-002
258.400   3.179e-002
258.500   3.196e-002
258.600   3.214e-002
258.700   3.232e-002
258.800   3.250e-002
258.900   3.268e-002
259.000   3.286e-002
259.100   3.305e-002
259.200   3.323e-002
259.300   3.341e-002
259.400   3.360e-002
259.500   3.378e-002
259.600   3.397e-002
259.700   3.415e-002
259.800   3.434e-002
259.900   3.453e-002
260.000   3.472e-002
260.100   3.491e-002
260.200   3.510e-002
260.300   3.529e-002
260.400   3.548e-002
260.500   3.568e-002
260.600   3.587e-002
260.700   3.607e-002
260.800   3.626e-002
260.900   3.646e-002
261.000   3.666e-002
261.100   3.685e-002
261.200   3.705e-002
261.300   3.725e-002
261.400   3.745e-002
261.500   3.765e-002
261.600   3.786e-002
261.700   3.806e-002
261.800   3.826e-002
261.900   3.847e-002
262.000   3.867e-002
262.100   3.888e-002
262.200   3.908e-002
262.300   3.929e-002
262.400   3.950e-002
262.500   3.971e-002
262.600   3.992e-002
262.700   4.013e-002
262.800   4.034e-002
262.900   4.056e-002
263.000   4.077e-002
263.100   4.098e-002
263.200   4.120e-002
263.300   4.141e-002
263.400   4.163e-002
263.500   4.185e-002
263.600   4.207e-002
263.700   4.229e-002
263.800   4.251e-002
263.900   4.273e-002
264.000   4.295e-002
264.100   4.317e-002
264.200   4.340e-002
264.300   4.362e-002
264.400   4.385e-002
264.500   4.407e-002
264.600   4.430e-002
264.700   4.453e-002
264.800   4.476e-002
264.900   4.499e-002
265.000   4.522e-002
265.100   4.545e-002
265.200   4.568e-002
265.300   4.591e-002
265.400   4.615e-002
265.500   4.638e-002
265.600   4.662e-002
265.700   4.686e-002
265.800   4.709e-002
265.900   4.733e-002
266.000   4.757e-002
266.100   4.781e-002
266.200   4.805e-002
266.300   4.829e-002
266.400   4.854e-002
266.500   4.878e-002
266.600   4.903e-002
266.700   4.927e-002
266.800   4.952e-002
266.900   4.977e-002
267.000   5.001e-002
267.100   5.026e-002
267.200   5.051e-002
267.300   5.076e-002
267.400   5.102e-002
267.500   5.127e-002
267.600   5.152e-002
267.700   5.178e-002
267.800   5.203e-002
267.900   5.229e-002
268.000   5.255e-002
268.100   5.281e-002
268.200   5.307e-002
268.300   5.333e-002
268.400   5.359e-002
268.500   5.385e-002
268.600   5.411e-002
268.700   5.438e-002
268.800   5.464e-002
268.900   5.491e-002
269.000   5.518e-002
269.100   5.544e-002
269.200   5.571e-002
269.300   5.598e-002
269.400   5.625e-002
269.500   5.653e-002
269.600   5.680e-002
269.700   5.707e-002
269.800   5.735e-002
269.900   5.762e-002
270.000   5.790e-002
270.100   5.818e-002
270.200   5.845e-002
270.300   5.873e-002
270.400   5.901e-002
270.500   5.929e-002
270.600   5.957e-002
270.700   5.985e-002
270.800   6.014e-002
270.900   6.042e-002
271.000   6.070e-002
271.100   6.099e-002
271.200   6.128e-002
271.300   6.157e-002
271.400   6.186e-002
271.500   6.215e-002
271.600   6.244e-002
271.700   6.273e-002
271.800   6.302e-002
271.900   6.332e-002
272.000   6.361e-002
272.100   6.391e-002
272.200   6.421e-002
272.300   6.451e-002
272.400   6.481e-002
272.500   6.511e-002
272.600   6.541e-002
272.700   6.571e-002
272.800   6.602e-002
272.900   6.632e-002
273.000   6.663e-002
273.100   6.694e-002
273.200   6.725e-002
273.300   6.756e-002
273.400   6.787e-002
273.500   6.818e-002
273.600   6.849e-002
273.700   6.881e-002
273.800   6.912e-002
273.900   6.944e-002
274.000   6.976e-002
274.100   7.008e-002
274.200   7.040e-002
274.300   7.072e-002
274.400   7.104e-002
274.500   7.136e-002
274.600   7.169e-002
274.700   7.201e-002
274.800   7.234e-002
274.900   7.267e-002
275.000   7.300e-002
275.100   7.333e-002
275.200   7.366e-002
275.300   7.399e-002
275.400   7.433e-002
275.500   7.466e-002
275.600   7.500e-002
275.700   7.534e-002
275.800   7.568e-002
275.900   7.602e-002
276.000   7.636e-002
276.100   7.670e-002
276.200   7.704e-002
276.300   7.739e-002
276.400   7.773e-002
276.500   7.808e-002
276.600   7.843e-002
276.700   7.878e-002
276.800   7.913e-002
276.900   7.948e-002
277.000   7.984e-002
277.100   8.019e-002
277.200   8.055e-002
277.300   8.090e-002
277.400   8.126e-002
277.500   8.162e-002
277.600   8.198e-002
277.700   8.235e-002
277.800   8.271e-002
277.900   8.307e-002
278.000   8.344e-002
278.100   8.381e-002
278.200   8.418e-002
278.300   8.455e-002
278.400   8.492e-002
278.500   8.529e-002
278.600   8.566e-002
278.700   8.604e-002
278.800   8.641e-002
278.900   8.679e-002
279.000   8.717e-002
279.100   8.755e-002
279.200   8.793e-002
279.300   8.831e-002
279.400   8.870e-002
279.500   8.908e-002
279.600   8.947e-002
279.700   8.986e-002
279.800   9.025e-002
279.900   9.064e-002
280.000   9.103e-002
280.100   9.142e-002
280.200   9.182e-002
280.300   9.222e-002
280.400   9.262e-002
280.500   9.302e-002
280.600   9.342e-002
280.700   9.382e-002
280.800   9.423e-002
280.900   9.463e-002
281.000   9.504e-002
281.100   9.545e-002
281.200   9.586e-002
281.300   9.627e-002
281.400   9.668e-002
281.500   9.709e-002
281.600   9.751e-002
281.700   9.792e-002
281.800   9.834e-002
281.900   9.876e-002
282.000   9.918e-002
282.100   9.960e-002
282.200   1.000e-001
282.300   1.004e-001
282.400   1.009e-001
282.500   1.013e-001
282.600   1.017e-001
282.700   1.022e-001
282.800   1.026e-001
282.900   1.030e-001
283.000   1.035e-001
283.100   1.039e-001
283.200   1.043e-001
283.300   1.048e-001
283.400   1.052e-001
283.500   1.056e-001
283.600   1.061e-001
283.700   1.065e-001
283.800   1.070e-001
283.900   1.074e-001
284.000   1.079e-001
284.100   1.083e-001
284.200   1.088e-001
284.300   1.092e-001
284.400   1.097e-001
284.500   1.101e-001
284.600   1.106e-001
284.700   1.110e-001
284.800   1.115e-001
284.900   1.119e-001
285.000   1.124e-001
285.100   1.129e-001
285.200   1.133e-001
285.300   1.138e-001
285.400   1.143e-001
285.500   1.147e-001
285.600   1.152e-001
285.700   1.157e-001
285.800   1.162e-001
285.900   1.166e-001
286.000   1.171e-001
286.100   1.176e-001
286.200   1.181e-001
286.300   1.185e-001
286.400   1.190e-001
286.500   1.195e-001
286.600   1.200e-001
286.700   1.205e-001
286.800   1.210e-001
286.900   1.214e-001
287.000   1.219e-001
287.100   1.224e-001
287.200   1.229e-001
287.300   1.234e-001
287.400   1.239e-001
287.500   1.244e-001
287.600   1.249e-001
287.700   1.254e-001
287.800   1.259e-001
287.900   1.264e-001
288.000   1.269e-001
288.100   1.274e-001
288.200   1.279e-001
288.300   1.284e-001
288.400   1.289e-001
288.500   1.294e-001
288.600   1.300e-001
288.700   1.305e-001
288.800   1.310e-001
288.900   1.315e-001
289.000   1.320e-001
289.100   1.325e-001
289.200   1.331e-001
289.300   1.336e-001
289.400   1.341e-001
289.500   1.346e-001
289.600   1.352e-001
289.700   1.357e-001
289.800   1.362e-001
289.900   1.368e-001
290.000   1.373e-001
290.100   1.378e-001
290.200   1.384e-001
290.300   1.389e-001
290.400   1.395e-001
290.500   1.400e-001
290.600   1.405e-001
290.700   1.411e-001
290.800   1.416e-001
290.900   1.422e-001
291.000   1.427e-001
291.100   1.433e-001
291.200   1.438e-001
291.300   1.444e-001
291.400   1.449e-001
291.500   1.455e-001
291.600   1.461e-001
291.700   1.466e-001
291.800   1.472e-001
291.900   1.477e-001
292.000   1.483e-001
292.100   1.489e-001
292.200   1.494e-001
292.300   1.500e-001
292.400   1.506e-001
292.500   1.512e-001
292.600   1.517e-001
292.700   1.523e-001
292.800   1.529e-001
292.900   1.535e-001
293.000   1.540e-001
293.100   1.546e-001
293.200   1.552e-001
293.300   1.558e-001
293.400   1.564e-001
293.500   1.570e-001
293.600   1.576e-001
293.700   1.582e-001
293.800   1.587e-001
293.900   1.593e-001
294.000   1.599e-001
294.100   1.605e-001
294.200   1.611e-001
294.300   1.617e-001
294.400   1.623e-001
294.500   1.629e-001
294.600   1.636e-001
294.700   1.642e-001
294.800   1.648e-001
294.900   1.654e-001
295.000   1.660e-001
295.100   1.666e-001
295.200   1.672e-001
295.300   1.679e-001
295.400   1.685e-001
295.500   1.691e-001
295.600   1.697e-001
295.700   1.703e-001
295.800   1.710e-001
295.900   1.716e-001
296.000   1.722e-001
296.100   1.729e-001
296.200   1.735e-001
296.300   1.741e-001
296.400   1.748e-001
296.500   1.754e-001
296.600   1.761e-001
296.700   1.767e-001
296.800   1.773e-001
296.900   1.780e-001
297.000   1.786e-001
297.100   1.793e-001
297.200   1.799e-001
297.300   1.806e-001
297.400   1.812e-001
297.500   1.819e-001
297.600   1.826e-001
297.700   1.832e-001
297.800   1.839e-001
297.900   1.845e-001
298.000   1.852e-001
298.100   1.859e-001
298.200   1.865e-001
298.300   1.872e-001
298.400   1.879e-001
298.500   1.886e-001
298.600   1.892e-001
298.700   1.899e-001
298.800   1.906e-001
298.900   1.913e-001
299.000   1.920e-001
299.100   1.926e-001
299.200   1.933e-001
299.300   1.940e-001
299.400   1.947e-001
299.500   1.954e-001
299.600   1.961e-001
299.700   1.968e-001
299.800   1.975e-001
299.900   1.982e-001
300.000   1.989e-001
300.100   1.996e-001
300.200   2.003e-001
300.300   2.010e-001
300.400   2.017e-001
300.500   2.024e-001
300.600   2.031e-001
300.700   2.038e-001
300.800   2.046e-001
300.900   2.053e-001
301.000   2.060e-001
301.100   2.067e-001
301.200   2.074e-001
301.300   2.082e-001
301.400   2.089e-001
301.500   2.096e-001
301.600   2.103e-001
301.700   2.111e-001
301.800   2.118e-001
301.900   2.125e-001
302.000   2.133e-001
302.100   2.140e-001
302.200   2.148e-001
302.300   2.155e-001
302.400   2.162e-001
302.500   2.170e-001
302.600   2.177e-001
302.700   2.185e-001
302.800   2.193e-001
302.900   2.200e-001
303.000   2.208e-001
303.100   2.215e-001
303.200   2.223e-001
303.300   2.230e-001
303.400   2.238e-001
303.500   2.246e-001
303.600   2.254e-001
303.700   2.261e-001
303.800   2.269e-001
303.900   2.277e-001
304.000   2.285e-001
304.100   2.292e-001
304.200   2.300e-001
304.300   2.308e-001
304.400   2.316e-001
304.500   2.324e-001
304.600   2.332e-001
304.700   2.340e-001
304.800   2.348e-001
304.900   2.356e-001
305.000   2.363e-001
305.100   2.372e-001
305.200   2.380e-001
305.300   2.388e-001
305.400   2.396e-001
305.500   2.404e-001
305.600   2.412e-001
305.700   2.420e-001
305.800   2.428e-001
305.900   2.436e-001
306.000   2.445e-001
306.100   2.453e-001
306.200   2.461e-001
306.300   2.469e-001
306.400   2.478e-001
306.500   2.486e-001
306.600   2.494e-001
306.700   2.503e-001
306.800   2.511e-001
306.900   2.519e-001
307.000   2.528e-001
307.100   2.536e-001
307.200   2.545e-001
307.300   2.553e-001
307.400   2.562e-001
307.500   2.570e-001
307.600   2.579e-001
307.700   2.587e-001
307.800   2.596e-001
307.900   2.605e-001
308.000   2.613e-001
308.100   2.622e-001
308.200   2.631e-001
308.300   2.639e-001
308.400   2.648e-001
308.500   2.657e-001
308.600   2.666e-001
308.700   2.674e-001
308.800   2.683e-001
308.900   2.692e-001
309.000   2.701e-001
309.100   2.710e-001
309.200   2.719e-001
309.300   2.728e-001
309.400   2.737e-001
309.500   2.746e-001
309.600   2.755e-001
309.700   2.764e-001
309.800   2.773e-001
309.900   2.782e-001
310.000   2.791e-001
310.100   2.800e-001
310.200   2.809e-001
310.300   2.819e-001
310.400   2.828e-001
310.500   2.837e-001
310.600   2.846e-001
310.700   2.856e-001
310.800   2.865e-001
310.900   2.874e-001
311.000   2.884e-001
311.100   2.893e-001
311.200   2.903e-001
311.300   2.912e-001
311.400   2.922e-001
311.500   2.931e-001
311.600   2.941e-001
311.700   2.950e-001
311.800   2.960e-001
311.900   2.969e-001
312.000   2.979e-001
312.100   2.989e-001
312.200   2.998e-001
312.300   3.008e-001
312.400   3.018e-001
312.500   3.027e-001
312.600   3.037e-001
312.700   3.047e-001
312.800   3.057e-001
312.900   3.066e-001
313.000   3.076e-001
313.100   3.086e-001
313.200   3.096e-001
313.300   3.106e-001
313.400   3.116e-001
313.500   3.126e-001
313.600   3.136e-001
313.700   3.146e-001
313.800   3.156e-001
313.900   3.166e-001
314.000   3.176e-001
314.100   3.186e-001
314.200   3.196e-001
314.300   3.206e-001
314.400   3.216e-001
314.500   3.226e-001
314.600   3.237e-001
314.700   3.247e-001
314.800   3.257e-001
314.900   3.267e-001
315.000   3.278e-001
315.100   3.288e-001
315.200   3.298e-001
315.300   3.309e-001
315.400   3.319e-001
315.500   3.329e-001
315.600   3.340e-001
315.700   3.350e-001
315.800   3.361e-001
315.900   3.371e-001
316.000   3.382e-001
316.100   3.392e-001
316.200   3.403e-001
316.300   3.413e-001
316.400   3.424e-001
316.500   3.435e-001
316.600   3.445e-001
316.700   3.456e-001
316.800   3.467e-001
316.900   3.477e-001
317.000   3.488e-001
317.100   3.499e-001
317.200   3.510e-001
317.300   3.520e-001
317.400   3.531e-001
317.500   3.542e-001
317.600   3.553e-001
317.700   3.564e-001
317.800   3.575e-001
317.900   3.586e-001
318.000   3.597e-001
318.100   3.608e-001
318.200   3.619e-001
318.300   3.630e-001
318.400   3.641e-001
318.500   3.652e-001
318.600   3.663e-001
318.700   3.674e-001
318.800   3.685e-001
318.900   3.696e-001
319.000   3.708e-001
319.100   3.719e-001
319.200   3.730e-001
319.300   3.741e-001
319.400   3.753e-001
319.500   3.764e-001
319.600   3.775e-001
319.700   3.787e-001
319.800   3.798e-001
319.900   3.810e-001
320.000   3.821e-001
320.100   3.832e-001
320.200   3.844e-001
320.300   3.855e-001
320.400   3.867e-001
320.500   3.878e-001
320.600   3.890e-001
320.700   3.901e-001
320.800   3.913e-001
320.900   3.924e-001
321.000   3.936e-001
321.100   3.948e-001
321.200   3.959e-001
321.300   3.971e-001
321.400   3.983e-001
321.500   3.995e-001
321.600   4.006e-001
321.700   4.018e-001
321.800   4.030e-001
321.900   4.042e-001
322.000   4.054e-001
322.100   4.066e-001
322.200   4.077e-001
322.300   4.089e-001
322.400   4.101e-001
322.500   4.113e-001
322.600   4.125e-001
322.700   4.138e-001
322.800   4.150e-001
322.900   4.162e-001
323.000   4.174e-001
323.100   4.186e-001
323.200   4.198e-001
323.300   4.210e-001
323.400   4.223e-001
323.500   4.235e-001
323.600   4.247e-001
323.700   4.260e-001
323.800   4.272e-001
323.900   4.284e-001
324.000   4.297e-001
324.100   4.309e-001
324.200   4.322e-001
324.300   4.334e-001
324.400   4.347e-001
324.500   4.359e-001
324.600   4.372e-001
324.700   4.384e-001
324.800   4.397e-001
324.900   4.410e-001
325.000   4.422e-001
325.100   4.435e-001
325.200   4.448e-001
325.300   4.461e-001
325.400   4.473e-001
325.500   4.486e-001
325.600   4.499e-001
325.700   4.512e-001
325.800   4.525e-001
325.900   4.538e-001
326.000   4.551e-001
326.100   4.564e-001
326.200   4.577e-001
326.300   4.590e-001
326.400   4.603e-001
326.500   4.616e-001
326.600   4.629e-001
326.700   4.643e-001
326.800   4.656e-001
326.900   4.669e-001
327.000   4.682e-001
327.100   4.696e-001
327.200   4.709e-001
327.300   4.722e-001
327.400   4.736e-001
327.500   4.749e-001
327.600   4.762e-001
327.700   4.776e-001
327.800   4.789e-001
327.900   4.803e-001
328.000   4.817e-001
328.100   4.830e-001
328.200   4.844e-001
328.300   4.857e-001
328.400   4.871e-001
328.500   4.885e-001
328.600   4.899e-001
328.700   4.912e-001
328.800   4.926e-001
328.900   4.940e-001
329.000   4.954e-001
329.100   4.968e-001
329.200   4.982e-001
329.300   4.996e-001
329.400   5.009e-001
329.500   5.024e-001
329.600   5.038e-001
329.700   5.052e-001
329.800   5.066e-001
329.900   5.080e-001
330.000   5.094e-001
330.100   5.108e-001
330.200   5.122e-001
330.300   5.137e-001
330.400   5.151e-001
330.500   5.165e-001
330.600   5.180e-001
330.700   5.194e-001
330.800   5.209e-001
330.900   5.223e-001
331.000   5.238e-001
331.100   5.252e-001
331.200   5.267e-001
331.300   5.281e-001
331.400   5.296e-001
331.500   5.310e-001
331.600   5.325e-001
331.700   5.340e-001
331.800   5.355e-001
331.900   5.369e-001
332.000   5.384e-001
332.100   5.399e-001
332.200   5.414e-001
332.300   5.429e-001
332.400   5.444e-001
332.500   5.459e-001
332.600   5.474e-001
332.700   5.489e-001
332.800   5.504e-001
332.900   5.519e-001
333.000   5.534e-001
333.100   5.549e-001
333.200   5.564e-001
333.300   5.579e-001
333.400   5.594e-001
333.500   5.610e-001
333.600   5.625e-001
333.700   5.640e-001
333.800   5.656e-001
333.900   5.671e-001
334.000   5.686e-001
334.100   5.702e-001
334.200   5.717e-001
334.300   5.733e-001
334.400   5.748e-001
334.500   5.764e-001
334.600   5.779e-001
334.700   5.795e-001
334.800   5.811e-001
334.900   5.826e-001
335.000   5.842e-001
335.100   5.858e-001
335.200   5.874e-001
335.300   5.889e-001
335.400   5.905e-001
335.500   5.921e-001
335.600   5.937e-001
335.700   5.953e-001
335.800   5.969e-001
335.900   5.985e-001
336.000   6.001e-001
336.100   6.017e-001
336.200   6.033e-001
336.300   6.049e-001
336.400   6.065e-001
336.500   6.082e-001
336.600   6.098e-001
336.700   6.114e-001
336.800   6.130e-001
336.900   6.147e-001
337.000   6.163e-001
337.100   6.179e-001
337.200   6.196e-001
337.300   6.212e-001
337.400   6.228e-001
337.500   6.245e-001
337.600   6.261e-001
337.700   6.278e-001
337.800   6.295e-001
337.900   6.311e-001
338.000   6.328e-001
338.100   6.344e-001
338.200   6.361e-001
338.300   6.378e-001
338.400   6.395e-001
338.500   6.411e-001
338.600   6.428e-001
338.700   6.445e-001
338.800   6.462e-001
338.900   6.479e-001
339.000   6.496e-001
339.100   6.513e-001
339.200   6.530e-001
339.300   6.547e-001
339.400   6.564e-001
339.500   6.581e-001
339.600   6.598e-001
339.700   6.615e-001
339.800   6.633e-001
339.900   6.650e-001
340.000   6.667e-001
340.100   6.684e-001
340.200   6.702e-001
340.300   6.719e-001
340.400   6.737e-001
