Date:24 May 2023 22:38:06 GMT
 wavelen   Irradiance
   (nm)   uW/cm^2/nm
250.000   1.890e-002
250.100   1.901e-002
250.200   1.913e-002
250.300   1.924e-002
250.400   1.936e-002
250.500   1.947e-002
250.600   1.959e-002
250.700   1.971e-002
250.800   1.983e-002
250.900   1.995e-002
251.000   2.006e-002
251.100   2.018e-002
251.200   2.030e-002
251.300   2.043e-002
251.400   2.055e-002
251.500   2.067e-002
251.600   2.079e-002
251.700   2.092e-002
251.800   2.104e-002
251.900   2.117e-002
252.000   2.129e-002
252.100   2.142e-002
252.200   2.155e-002
252.300   2.167e-002
252.400   2.180e-002
252.500   2.193e-002
252.600   2.206e-002
252.700   2.219e-002
252.800   2.232e-002
252.900   2.245e-002
253.000   2.259e-002
253.100   2.272e-002
253.200   2.285e-002
253.300   2.299e-002
253.400   2.312e-002
253.500   2.326e-002
253.600   2.339e-002
253.700   2.353e-002
253.800   2.367e-002
253.900   2.381e-002
254.000   2.395e-002
254.100   2.409e-002
254.200   2.423e-002
254.300   2.437e-002
254.400   2.451e-002
254.500   2.465e-002
254.600   2.480e-002
254.700   2.494e-002
254.800   2.508e-002
254.900   2.523e-002
255.000   2.538e-002
255.100   2.552e-002
255.200   2.567e-002
255.300   2.582e-002
255.400   2.597e-002
255.500   2.612e-002
255.600   2.627e-002
255.700   2.642e-002
255.800   2.657e-002
255.900   2.672e-002
256.000   2.687e-002
256.100   2.703e-002
256.200   2.718e-002
256.300   2.734e-002
256.400   2.749e-002
256.500   2.765e-002
256.600   2.781e-002
256.700   2.796e-002
256.800   2.812e-002
256.900   2.828e-002
257.000   2.844e-002
257.100   2.860e-002
257.200   2.876e-002
257.300   2.893e-002
257.400   2.909e-002
257.500   2.925e-002
257.600   2.942e-002
257.700   2.958e-002
257.800   2.975e-002
257.900   2.992e-002
258.000   3.008e-002
258.100   3.025e-002
258.200   3.042e-002
258.300   3.059e-002
258.400   3.076e-002
258.500   3.093e-002
258.600   3.110e-002
258.700   3.128e-002
258.800   3.145e-002
258.900   3.162e-002
259.000   3.180e-002
259.100   3.197e-002
259.200   3.215e-002
259.300   3.233e-002
259.400   3.251e-002
259.500   3.268e-002
259.600   3.286e-002
259.700   3.304e-002
259.800   3.323e-002
259.900   3.341e-002
260.000   3.359e-002
260.100   3.377e-002
260.200   3.396e-002
260.300   3.414e-002
260.400   3.433e-002
260.500   3.451e-002
260.600   3.470e-002
260.700   3.489e-002
260.800   3.508e-002
260.900   3.527e-002
261.000   3.546e-002
261.100   3.565e-002
261.200   3.584e-002
261.300   3.603e-002
261.400   3.623e-002
261.500   3.642e-002
261.600   3.662e-002
261.700   3.681e-002
261.800   3.701e-002
261.900   3.721e-002
262.000   3.741e-002
262.100   3.761e-002
262.200   3.781e-002
262.300   3.801e-002
262.400   3.821e-002
262.500   3.841e-002
262.600   3.861e-002
262.700   3.882e-002
262.800   3.902e-002
262.900   3.923e-002
263.000   3.944e-002
263.100   3.964e-002
263.200   3.985e-002
263.300   4.006e-002
263.400   4.027e-002
263.500   4.048e-002
263.600   4.069e-002
263.700   4.091e-002
263.800   4.112e-002
263.900   4.133e-002
264.000   4.155e-002
264.100   4.176e-002
264.200   4.198e-002
264.300   4.220e-002
264.400   4.242e-002
264.500   4.264e-002
264.600   4.286e-002
264.700   4.308e-002
264.800   4.330e-002
264.900   4.352e-002
265.000   4.375e-002
265.100   4.397e-002
265.200   4.420e-002
265.300   4.442e-002
265.400   4.465e-002
265.500   4.488e-002
265.600   4.511e-002
265.700   4.534e-002
265.800   4.557e-002
265.900   4.580e-002
266.000   4.603e-002
266.100   4.626e-002
266.200   4.650e-002
266.300   4.673e-002
266.400   4.697e-002
266.500   4.721e-002
266.600   4.744e-002
266.700   4.768e-002
266.800   4.792e-002
266.900   4.816e-002
267.000   4.840e-002
267.100   4.865e-002
267.200   4.889e-002
267.300   4.913e-002
267.400   4.938e-002
267.500   4.962e-002
267.600   4.987e-002
267.700   5.012e-002
267.800   5.037e-002
267.900   5.062e-002
268.000   5.087e-002
268.100   5.112e-002
268.200   5.137e-002
268.300   5.163e-002
268.400   5.188e-002
268.500   5.214e-002
268.600   5.239e-002
268.700   5.265e-002
268.800   5.291e-002
268.900   5.317e-002
269.000   5.343e-002
269.100   5.369e-002
269.200   5.395e-002
269.300   5.421e-002
269.400   5.448e-002
269.500   5.474e-002
269.600   5.501e-002
269.700   5.527e-002
269.800   5.554e-002
269.900   5.581e-002
270.000   5.608e-002
270.100   5.635e-002
270.200   5.662e-002
270.300   5.689e-002
270.400   5.717e-002
270.500   5.744e-002
270.600   5.772e-002
270.700   5.799e-002
270.800   5.827e-002
270.900   5.855e-002
271.000   5.883e-002
271.100   5.911e-002
271.200   5.939e-002
271.300   5.967e-002
271.400   5.995e-002
271.500   6.024e-002
271.600   6.052e-002
271.700   6.081e-002
271.800   6.110e-002
271.900   6.138e-002
272.000   6.167e-002
272.100   6.196e-002
272.200   6.226e-002
272.300   6.255e-002
272.400   6.284e-002
272.500   6.314e-002
272.600   6.343e-002
272.700   6.373e-002
272.800   6.403e-002
272.900   6.433e-002
273.000   6.463e-002
273.100   6.493e-002
273.200   6.523e-002
273.300   6.553e-002
273.400   6.584e-002
273.500   6.614e-002
273.600   6.645e-002
273.700   6.676e-002
273.800   6.706e-002
273.900   6.737e-002
274.000   6.768e-002
274.100   6.800e-002
274.200   6.831e-002
274.300   6.862e-002
274.400   6.894e-002
274.500   6.925e-002
274.600   6.957e-002
274.700   6.989e-002
274.800   7.021e-002
274.900   7.053e-002
275.000   7.085e-002
275.100   7.118e-002
275.200   7.150e-002
275.300   7.182e-002
275.400   7.215e-002
275.500   7.248e-002
275.600   7.281e-002
275.700   7.314e-002
275.800   7.347e-002
275.900   7.380e-002
276.000   7.413e-002
276.100   7.447e-002
276.200   7.480e-002
276.300   7.514e-002
276.400   7.548e-002
276.500   7.582e-002
276.600   7.616e-002
276.700   7.650e-002
276.800   7.684e-002
276.900   7.718e-002
277.000   7.753e-002
277.100   7.787e-002
277.200   7.822e-002
277.300   7.857e-002
277.400   7.892e-002
277.500   7.927e-002
277.600   7.962e-002
277.700   7.998e-002
277.800   8.033e-002
277.900   8.068e-002
278.000   8.104e-002
278.100   8.140e-002
278.200   8.176e-002
278.300   8.212e-002
278.400   8.248e-002
278.500   8.284e-002
278.600   8.321e-002
278.700   8.357e-002
278.800   8.394e-002
278.900   8.431e-002
279.000   8.467e-002
279.100   8.504e-002
279.200   8.542e-002
279.300   8.579e-002
279.400   8.616e-002
279.500   8.654e-002
279.600   8.691e-002
279.700   8.729e-002
279.800   8.767e-002
279.900   8.805e-002
280.000   8.843e-002
280.100   8.881e-002
280.200   8.920e-002
280.300   8.958e-002
280.400   8.997e-002
280.500   9.036e-002
280.600   9.075e-002
280.700   9.114e-002
280.800   9.153e-002
280.900   9.192e-002
281.000   9.232e-002
281.100   9.271e-002
281.200   9.311e-002
281.300   9.351e-002
281.400   9.391e-002
281.500   9.431e-002
281.600   9.471e-002
281.700   9.511e-002
281.800   9.552e-002
281.900   9.592e-002
282.000   9.633e-002
282.100   9.674e-002
282.200   9.715e-002
282.300   9.756e-002
282.400   9.797e-002
282.500   9.839e-002
282.600   9.880e-002
282.700   9.922e-002
282.800   9.964e-002
282.900   1.001e-001
283.000   1.005e-001
283.100   1.009e-001
283.200   1.013e-001
283.300   1.017e-001
283.400   1.022e-001
283.500   1.026e-001
283.600   1.030e-001
283.700   1.035e-001
283.800   1.039e-001
283.900   1.043e-001
284.000   1.047e-001
284.100   1.052e-001
284.200   1.056e-001
284.300   1.061e-001
284.400   1.065e-001
284.500   1.069e-001
284.600   1.074e-001
284.700   1.078e-001
284.800   1.083e-001
284.900   1.087e-001
285.000   1.092e-001
285.100   1.096e-001
285.200   1.101e-001
285.300   1.105e-001
285.400   1.110e-001
285.500   1.114e-001
285.600   1.119e-001
285.700   1.123e-001
285.800   1.128e-001
285.900   1.132e-001
286.000   1.137e-001
286.100   1.142e-001
286.200   1.146e-001
286.300   1.151e-001
286.400   1.156e-001
286.500   1.160e-001
286.600   1.165e-001
286.700   1.170e-001
286.800   1.174e-001
286.900   1.179e-001
287.000   1.184e-001
287.100   1.189e-001
287.200   1.193e-001
287.300   1.198e-001
287.400   1.203e-001
287.500   1.208e-001
287.600   1.213e-001
287.700   1.218e-001
287.800   1.222e-001
287.900   1.227e-001
288.000   1.232e-001
288.100   1.237e-001
288.200   1.242e-001
288.300   1.247e-001
288.400   1.252e-001
288.500   1.257e-001
288.600   1.262e-001
288.700   1.267e-001
288.800   1.272e-001
288.900   1.277e-001
289.000   1.282e-001
289.100   1.287e-001
289.200   1.292e-001
289.300   1.297e-001
289.400   1.302e-001
289.500   1.307e-001
289.600   1.312e-001
289.700   1.317e-001
289.800   1.323e-001
289.900   1.328e-001
290.000   1.333e-001
290.100   1.338e-001
290.200   1.343e-001
290.300   1.349e-001
290.400   1.354e-001
290.500   1.359e-001
290.600   1.364e-001
290.700   1.370e-001
290.800   1.375e-001
290.900   1.380e-001
291.000   1.386e-001
291.100   1.391e-001
291.200   1.396e-001
291.300   1.402e-001
291.400   1.407e-001
291.500   1.413e-001
291.600   1.418e-001
291.700   1.423e-001
291.800   1.429e-001
291.900   1.434e-001
292.000   1.440e-001
292.100   1.445e-001
292.200   1.451e-001
292.300   1.456e-001
292.400   1.462e-001
292.500   1.468e-001
292.600   1.473e-001
292.700   1.479e-001
292.800   1.484e-001
292.900   1.490e-001
293.000   1.496e-001
293.100   1.501e-001
293.200   1.507e-001
293.300   1.513e-001
293.400   1.518e-001
293.500   1.524e-001
293.600   1.530e-001
293.700   1.536e-001
293.800   1.541e-001
293.900   1.547e-001
294.000   1.553e-001
294.100   1.559e-001
294.200   1.565e-001
294.300   1.570e-001
294.400   1.576e-001
294.500   1.582e-001
294.600   1.588e-001
294.700   1.594e-001
294.800   1.600e-001
294.900   1.606e-001
295.000   1.612e-001
295.100   1.618e-001
295.200   1.624e-001
295.300   1.630e-001
295.400   1.636e-001
295.500   1.642e-001
295.600   1.648e-001
295.700   1.654e-001
295.800   1.660e-001
295.900   1.666e-001
296.000   1.672e-001
296.100   1.679e-001
296.200   1.685e-001
296.300   1.691e-001
296.400   1.697e-001
296.500   1.703e-001
296.600   1.710e-001
296.700   1.716e-001
296.800   1.722e-001
296.900   1.728e-001
297.000   1.735e-001
297.100   1.741e-001
297.200   1.747e-001
297.300   1.754e-001
297.400   1.760e-001
297.500   1.767e-001
297.600   1.773e-001
297.700   1.779e-001
297.800   1.786e-001
297.900   1.792e-001
298.000   1.799e-001
298.100   1.805e-001
298.200   1.812e-001
298.300   1.818e-001
298.400   1.825e-001
298.500   1.831e-001
298.600   1.838e-001
298.700   1.845e-001
298.800   1.851e-001
298.900   1.858e-001
299.000   1.864e-001
299.100   1.871e-001
299.200   1.878e-001
299.300   1.885e-001
299.400   1.891e-001
299.500   1.898e-001
299.600   1.905e-001
299.700   1.912e-001
299.800   1.918e-001
299.900   1.925e-001
300.000   1.932e-001
300.100   1.939e-001
300.200   1.946e-001
300.300   1.953e-001
300.400   1.959e-001
300.500   1.966e-001
300.600   1.973e-001
300.700   1.980e-001
300.800   1.987e-001
300.900   1.994e-001
301.000   2.001e-001
301.100   2.008e-001
301.200   2.015e-001
301.300   2.022e-001
301.400   2.029e-001
301.500   2.036e-001
301.600   2.043e-001
301.700   2.051e-001
301.800   2.058e-001
301.900   2.065e-001
302.000   2.072e-001
302.100   2.079e-001
302.200   2.087e-001
302.300   2.094e-001
302.400   2.101e-001
302.500   2.108e-001
302.600   2.116e-001
302.700   2.123e-001
302.800   2.130e-001
302.900   2.138e-001
303.000   2.145e-001
303.100   2.152e-001
303.200   2.160e-001
303.300   2.167e-001
303.400   2.175e-001
303.500   2.182e-001
303.600   2.190e-001
303.700   2.197e-001
303.800   2.205e-001
303.900   2.212e-001
304.000   2.220e-001
304.100   2.228e-001
304.200   2.235e-001
304.300   2.243e-001
304.400   2.250e-001
304.500   2.258e-001
304.600   2.266e-001
304.700   2.274e-001
304.800   2.281e-001
304.900   2.289e-001
305.000   2.297e-001
305.100   2.305e-001
305.200   2.312e-001
305.300   2.320e-001
305.400   2.328e-001
305.500   2.336e-001
305.600   2.344e-001
305.700   2.352e-001
305.800   2.360e-001
305.900   2.368e-001
306.000   2.376e-001
306.100   2.384e-001
306.200   2.392e-001
306.300   2.400e-001
306.400   2.408e-001
306.500   2.416e-001
306.600   2.424e-001
306.700   2.432e-001
306.800   2.440e-001
306.900   2.449e-001
307.000   2.457e-001
307.100   2.465e-001
307.200   2.473e-001
307.300   2.482e-001
307.400   2.490e-001
307.500   2.498e-001
307.600   2.507e-001
307.700   2.515e-001
307.800   2.523e-001
307.900   2.532e-001
308.000   2.540e-001
308.100   2.549e-001
308.200   2.557e-001
308.300   2.565e-001
308.400   2.574e-001
308.500   2.582e-001
308.600   2.591e-001
308.700   2.600e-001
308.800   2.608e-001
308.900   2.617e-001
309.000   2.625e-001
309.100   2.634e-001
309.200   2.643e-001
309.300   2.651e-001
309.400   2.660e-001
309.500   2.669e-001
309.600   2.678e-001
309.700   2.686e-001
309.800   2.695e-001
309.900   2.704e-001
310.000   2.713e-001
310.100   2.722e-001
310.200   2.731e-001
310.300   2.740e-001
310.400   2.749e-001
310.500   2.758e-001
310.600   2.767e-001
310.700   2.776e-001
310.800   2.785e-001
310.900   2.794e-001
311.000   2.803e-001
311.100   2.812e-001
311.200   2.822e-001
311.300   2.831e-001
311.400   2.840e-001
311.500   2.849e-001
311.600   2.858e-001
311.700   2.868e-001
311.800   2.877e-001
311.900   2.886e-001
312.000   2.896e-001
312.100   2.905e-001
312.200   2.914e-001
312.300   2.924e-001
312.400   2.933e-001
312.500   2.943e-001
312.600   2.952e-001
312.700   2.962e-001
312.800   2.971e-001
312.900   2.981e-001
313.000   2.990e-001
313.100   3.000e-001
313.200   3.009e-001
313.300   3.019e-001
313.400   3.029e-001
313.500   3.038e-001
313.600   3.048e-001
313.700   3.058e-001
313.800   3.068e-001
313.900   3.077e-001
314.000   3.087e-001
314.100   3.097e-001
314.200   3.107e-001
314.300   3.117e-001
314.400   3.126e-001
314.500   3.136e-001
314.600   3.146e-001
314.700   3.156e-001
314.800   3.166e-001
314.900   3.176e-001
315.000   3.186e-001
315.100   3.196e-001
315.200   3.206e-001
315.300   3.216e-001
315.400   3.226e-001
315.500   3.236e-001
315.600   3.247e-001
315.700   3.257e-001
315.800   3.267e-001
315.900   3.277e-001
316.000   3.287e-001
316.100   3.298e-001
316.200   3.308e-001
316.300   3.318e-001
316.400   3.328e-001
316.500   3.339e-001
316.600   3.349e-001
316.700   3.360e-001
316.800   3.370e-001
316.900   3.380e-001
317.000   3.391e-001
317.100   3.401e-001
317.200   3.412e-001
317.300   3.422e-001
317.400   3.433e-001
317.500   3.443e-001
317.600   3.454e-001
317.700   3.465e-001
317.800   3.475e-001
317.900   3.486e-001
318.000   3.497e-001
318.100   3.507e-001
318.200   3.518e-001
318.300   3.529e-001
318.400   3.540e-001
318.500   3.550e-001
318.600   3.561e-001
318.700   3.572e-001
318.800   3.583e-001
318.900   3.594e-001
319.000   3.605e-001
319.100   3.616e-001
319.200   3.627e-001
319.300   3.637e-001
319.400   3.648e-001
319.500   3.660e-001
319.600   3.671e-001
319.700   3.682e-001
319.800   3.693e-001
319.900   3.704e-001
320.000   3.715e-001
320.100   3.726e-001
320.200   3.737e-001
320.300   3.748e-001
320.400   3.760e-001
320.500   3.771e-001
320.600   3.782e-001
320.700   3.793e-001
320.800   3.804e-001
320.900   3.816e-001
321.000   3.827e-001
321.100   3.838e-001
321.200   3.850e-001
321.300   3.861e-001
321.400   3.873e-001
321.500   3.884e-001
321.600   3.896e-001
321.700   3.907e-001
321.800   3.919e-001
321.900   3.930e-001
322.000   3.942e-001
322.100   3.953e-001
322.200   3.965e-001
322.300   3.977e-001
322.400   3.988e-001
322.500   4.000e-001
322.600   4.012e-001
322.700   4.023e-001
322.800   4.035e-001
322.900   4.047e-001
323.000   4.059e-001
323.100   4.071e-001
323.200   4.083e-001
323.300   4.094e-001
323.400   4.106e-001
323.500   4.118e-001
323.600   4.130e-001
323.700   4.142e-001
323.800   4.154e-001
323.900   4.167e-001
324.000   4.179e-001
324.100   4.191e-001
324.200   4.203e-001
324.300   4.215e-001
324.400   4.227e-001
324.500   4.240e-001
324.600   4.252e-001
324.700   4.264e-001
324.800   4.276e-001
324.900   4.289e-001
325.000   4.301e-001
325.100   4.314e-001
325.200   4.326e-001
325.300   4.338e-001
325.400   4.351e-001
325.500   4.363e-001
325.600   4.376e-001
325.700   4.389e-001
325.800   4.401e-001
325.900   4.414e-001
326.000   4.426e-001
326.100   4.439e-001
326.200   4.452e-001
326.300   4.465e-001
326.400   4.477e-001
326.500   4.490e-001
326.600   4.503e-001
326.700   4.516e-001
326.800   4.529e-001
326.900   4.542e-001
327.000   4.554e-001
327.100   4.567e-001
327.200   4.580e-001
327.300   4.593e-001
327.400   4.606e-001
327.500   4.620e-001
327.600   4.633e-001
327.700   4.646e-001
327.800   4.659e-001
327.900   4.672e-001
328.000   4.685e-001
328.100   4.699e-001
328.200   4.712e-001
328.300   4.725e-001
328.400   4.739e-001
328.500   4.752e-001
328.600   4.765e-001
328.700   4.779e-001
328.800   4.792e-001
328.900   4.806e-001
329.000   4.819e-001
329.100   4.833e-001
329.200   4.846e-001
329.300   4.860e-001
329.400   4.874e-001
329.500   4.887e-001
329.600   4.901e-001
329.700   4.915e-001
329.800   4.928e-001
329.900   4.942e-001
330.000   4.956e-001
330.100   4.970e-001
330.200   4.984e-001
330.300   4.998e-001
330.400   5.012e-001
330.500   5.026e-001
330.600   5.040e-001
330.700   5.054e-001
330.800   5.068e-001
330.900   5.082e-001
331.000   5.096e-001
331.100   5.110e-001
331.200   5.124e-001
331.300   5.139e-001
331.400   5.153e-001
331.500   5.167e-001
331.600   5.181e-001
331.700   5.196e-001
331.800   5.210e-001
331.900   5.225e-001
332.000   5.239e-001
332.100   5.253e-001
332.200   5.268e-001
332.300   5.282e-001
332.400   5.297e-001
332.500   5.312e-001
332.600   5.326e-001
332.700   5.341e-001
332.800   5.356e-001
332.900   5.370e-001
333.000   5.385e-001
333.100   5.400e-001
333.200   5.414e-001
333.300   5.429e-001
333.400   5.444e-001
333.500   5.459e-001
333.600   5.474e-001
333.700   5.489e-001
333.800   5.504e-001
333.900   5.519e-001
334.000   5.534e-001
334.100   5.549e-001
334.200   5.564e-001
334.300   5.579e-001
334.400   5.594e-001
334.500   5.609e-001
334.600   5.625e-001
334.700   5.640e-001
334.800   5.655e-001
334.900   5.670e-001
335.000   5.686e-001
335.100   5.701e-001
335.200   5.716e-001
335.300   5.732e-001
335.400   5.747e-001
335.500   5.763e-001
335.600   5.778e-001
335.700   5.794e-001
335.800   5.809e-001
335.900   5.825e-001
336.000   5.841e-001
336.100   5.856e-001
336.200   5.872e-001
336.300   5.888e-001
336.400   5.903e-001
336.500   5.919e-001
336.600   5.935e-001
336.700   5.951e-001
336.800   5.967e-001
336.900   5.983e-001
337.000   5.998e-001
337.100   6.014e-001
337.200   6.030e-001
337.300   6.046e-001
337.400   6.062e-001
337.500   6.079e-001
337.600   6.095e-001
337.700   6.111e-001
337.800   6.127e-001
337.900   6.143e-001
338.000   6.159e-001
338.100   6.176e-001
338.200   6.192e-001
338.300   6.208e-001
338.400   6.224e-001
338.500   6.241e-001
338.600   6.257e-001
338.700   6.274e-001
338.800   6.290e-001
338.900   6.307e-001
339.000   6.323e-001
339.100   6.340e-001
339.200   6.356e-001
339.300   6.373e-001
339.400   6.390e-001
339.500   6.406e-001
339.600   6.423e-001
339.700   6.440e-001
339.800   6.456e-001
339.900   6.473e-001
340.000   6.490e-001
340.100   6.507e-001
340.200   6.524e-001
340.300   6.541e-001
340.400   6.558e-001
