Date:5 Jan 2022 23:38:30 GMT
 wavelen   Irradiance
   (nm)   uW/cm^2/nm
250.000   1.653e-002
250.100   1.663e-002
250.200   1.674e-002
250.300   1.684e-002
250.400   1.695e-002
250.500   1.705e-002
250.600   1.716e-002
250.700   1.727e-002
250.800   1.737e-002
250.900   1.748e-002
251.000   1.759e-002
251.100   1.770e-002
251.200   1.781e-002
251.300   1.792e-002
251.400   1.803e-002
251.500   1.814e-002
251.600   1.825e-002
251.700   1.836e-002
251.800   1.847e-002
251.900   1.859e-002
252.000   1.870e-002
252.100   1.881e-002
252.200   1.893e-002
252.300   1.904e-002
252.400   1.916e-002
252.500   1.927e-002
252.600   1.939e-002
252.700   1.950e-002
252.800   1.962e-002
252.900   1.974e-002
253.000   1.986e-002
253.100   1.998e-002
253.200   2.009e-002
253.300   2.021e-002
253.400   2.033e-002
253.500   2.046e-002
253.600   2.058e-002
253.700   2.070e-002
253.800   2.082e-002
253.900   2.094e-002
254.000   2.107e-002
254.100   2.119e-002
254.200   2.132e-002
254.300   2.144e-002
254.400   2.157e-002
254.500   2.169e-002
254.600   2.182e-002
254.700   2.195e-002
254.800   2.207e-002
254.900   2.220e-002
255.000   2.233e-002
255.100   2.246e-002
255.200   2.259e-002
255.300   2.272e-002
255.400   2.285e-002
255.500   2.299e-002
255.600   2.312e-002
255.700   2.325e-002
255.800   2.338e-002
255.900   2.352e-002
256.000   2.365e-002
256.100   2.379e-002
256.200   2.392e-002
256.300   2.406e-002
256.400   2.420e-002
256.500   2.434e-002
256.600   2.447e-002
256.700   2.461e-002
256.800   2.475e-002
256.900   2.489e-002
257.000   2.503e-002
257.100   2.518e-002
257.200   2.532e-002
257.300   2.546e-002
257.400   2.560e-002
257.500   2.575e-002
257.600   2.589e-002
257.700   2.604e-002
257.800   2.618e-002
257.900   2.633e-002
258.000   2.648e-002
258.100   2.662e-002
258.200   2.677e-002
258.300   2.692e-002
258.400   2.707e-002
258.500   2.722e-002
258.600   2.737e-002
258.700   2.752e-002
258.800   2.767e-002
258.900   2.783e-002
259.000   2.798e-002
259.100   2.813e-002
259.200   2.829e-002
259.300   2.844e-002
259.400   2.860e-002
259.500   2.876e-002
259.600   2.891e-002
259.700   2.907e-002
259.800   2.923e-002
259.900   2.939e-002
260.000   2.955e-002
260.100   2.971e-002
260.200   2.987e-002
260.300   3.003e-002
260.400   3.020e-002
260.500   3.036e-002
260.600   3.052e-002
260.700   3.069e-002
260.800   3.085e-002
260.900   3.102e-002
261.000   3.119e-002
261.100   3.136e-002
261.200   3.152e-002
261.300   3.169e-002
261.400   3.186e-002
261.500   3.203e-002
261.600   3.220e-002
261.700   3.238e-002
261.800   3.255e-002
261.900   3.272e-002
262.000   3.290e-002
262.100   3.307e-002
262.200   3.325e-002
262.300   3.342e-002
262.400   3.360e-002
262.500   3.378e-002
262.600   3.395e-002
262.700   3.413e-002
262.800   3.431e-002
262.900   3.449e-002
263.000   3.467e-002
263.100   3.486e-002
263.200   3.504e-002
263.300   3.522e-002
263.400   3.541e-002
263.500   3.559e-002
263.600   3.578e-002
263.700   3.596e-002
263.800   3.615e-002
263.900   3.634e-002
264.000   3.653e-002
264.100   3.672e-002
264.200   3.691e-002
264.300   3.710e-002
264.400   3.729e-002
264.500   3.748e-002
264.600   3.768e-002
264.700   3.787e-002
264.800   3.807e-002
264.900   3.826e-002
265.000   3.846e-002
265.100   3.866e-002
265.200   3.885e-002
265.300   3.905e-002
265.400   3.925e-002
265.500   3.945e-002
265.600   3.965e-002
265.700   3.986e-002
265.800   4.006e-002
265.900   4.026e-002
266.000   4.047e-002
266.100   4.067e-002
266.200   4.088e-002
266.300   4.109e-002
266.400   4.129e-002
266.500   4.150e-002
266.600   4.171e-002
266.700   4.192e-002
266.800   4.213e-002
266.900   4.235e-002
267.000   4.256e-002
267.100   4.277e-002
267.200   4.299e-002
267.300   4.320e-002
267.400   4.342e-002
267.500   4.364e-002
267.600   4.385e-002
267.700   4.407e-002
267.800   4.429e-002
267.900   4.451e-002
268.000   4.473e-002
268.100   4.495e-002
268.200   4.518e-002
268.300   4.540e-002
268.400   4.563e-002
268.500   4.585e-002
268.600   4.608e-002
268.700   4.631e-002
268.800   4.653e-002
268.900   4.676e-002
269.000   4.699e-002
269.100   4.722e-002
269.200   4.745e-002
269.300   4.769e-002
269.400   4.792e-002
269.500   4.816e-002
269.600   4.839e-002
269.700   4.863e-002
269.800   4.886e-002
269.900   4.910e-002
270.000   4.934e-002
270.100   4.958e-002
270.200   4.982e-002
270.300   5.006e-002
270.400   5.030e-002
270.500   5.055e-002
270.600   5.079e-002
270.700   5.104e-002
270.800   5.128e-002
270.900   5.153e-002
271.000   5.178e-002
271.100   5.203e-002
271.200   5.228e-002
271.300   5.253e-002
271.400   5.278e-002
271.500   5.303e-002
271.600   5.329e-002
271.700   5.354e-002
271.800   5.380e-002
271.900   5.405e-002
272.000   5.431e-002
272.100   5.457e-002
272.200   5.483e-002
272.300   5.509e-002
272.400   5.535e-002
272.500   5.561e-002
272.600   5.588e-002
272.700   5.614e-002
272.800   5.641e-002
272.900   5.667e-002
273.000   5.694e-002
273.100   5.721e-002
273.200   5.748e-002
273.300   5.775e-002
273.400   5.802e-002
273.500   5.829e-002
273.600   5.856e-002
273.700   5.883e-002
273.800   5.911e-002
273.900   5.939e-002
274.000   5.966e-002
274.100   5.994e-002
274.200   6.022e-002
274.300   6.050e-002
274.400   6.078e-002
274.500   6.106e-002
274.600   6.134e-002
274.700   6.163e-002
274.800   6.191e-002
274.900   6.220e-002
275.000   6.248e-002
275.100   6.277e-002
275.200   6.306e-002
275.300   6.335e-002
275.400   6.364e-002
275.500   6.393e-002
275.600   6.423e-002
275.700   6.452e-002
275.800   6.482e-002
275.900   6.511e-002
276.000   6.541e-002
276.100   6.571e-002
276.200   6.601e-002
276.300   6.631e-002
276.400   6.661e-002
276.500   6.691e-002
276.600   6.721e-002
276.700   6.752e-002
276.800   6.782e-002
276.900   6.813e-002
277.000   6.844e-002
277.100   6.875e-002
277.200   6.906e-002
277.300   6.937e-002
277.400   6.968e-002
277.500   6.999e-002
277.600   7.031e-002
277.700   7.062e-002
277.800   7.094e-002
277.900   7.125e-002
278.000   7.157e-002
278.100   7.189e-002
278.200   7.221e-002
278.300   7.253e-002
278.400   7.286e-002
278.500   7.318e-002
278.600   7.350e-002
278.700   7.383e-002
278.800   7.416e-002
278.900   7.449e-002
279.000   7.482e-002
279.100   7.515e-002
279.200   7.548e-002
279.300   7.581e-002
279.400   7.614e-002
279.500   7.648e-002
279.600   7.681e-002
279.700   7.715e-002
279.800   7.749e-002
279.900   7.783e-002
280.000   7.817e-002
280.100   7.851e-002
280.200   7.885e-002
280.300   7.920e-002
280.400   7.954e-002
280.500   7.989e-002
280.600   8.023e-002
280.700   8.058e-002
280.800   8.093e-002
280.900   8.128e-002
281.000   8.163e-002
281.100   8.199e-002
281.200   8.234e-002
281.300   8.270e-002
281.400   8.305e-002
281.500   8.341e-002
281.600   8.377e-002
281.700   8.413e-002
281.800   8.449e-002
281.900   8.485e-002
282.000   8.522e-002
282.100   8.558e-002
282.200   8.595e-002
282.300   8.631e-002
282.400   8.668e-002
282.500   8.705e-002
282.600   8.742e-002
282.700   8.779e-002
282.800   8.817e-002
282.900   8.854e-002
283.000   8.892e-002
283.100   8.929e-002
283.200   8.967e-002
283.300   9.005e-002
283.400   9.043e-002
283.500   9.081e-002
283.600   9.119e-002
283.700   9.158e-002
283.800   9.196e-002
283.900   9.235e-002
284.000   9.274e-002
284.100   9.313e-002
284.200   9.352e-002
284.300   9.391e-002
284.400   9.430e-002
284.500   9.470e-002
284.600   9.509e-002
284.700   9.549e-002
284.800   9.589e-002
284.900   9.629e-002
285.000   9.669e-002
285.100   9.709e-002
285.200   9.749e-002
285.300   9.790e-002
285.400   9.830e-002
285.500   9.871e-002
285.600   9.912e-002
285.700   9.953e-002
285.800   9.994e-002
285.900   1.004e-001
286.000   1.008e-001
286.100   1.012e-001
286.200   1.016e-001
286.300   1.020e-001
286.400   1.024e-001
286.500   1.029e-001
286.600   1.033e-001
286.700   1.037e-001
286.800   1.041e-001
286.900   1.045e-001
287.000   1.050e-001
287.100   1.054e-001
287.200   1.058e-001
287.300   1.063e-001
287.400   1.067e-001
287.500   1.071e-001
287.600   1.076e-001
287.700   1.080e-001
287.800   1.084e-001
287.900   1.089e-001
288.000   1.093e-001
288.100   1.098e-001
288.200   1.102e-001
288.300   1.106e-001
288.400   1.111e-001
288.500   1.115e-001
288.600   1.120e-001
288.700   1.124e-001
288.800   1.129e-001
288.900   1.133e-001
289.000   1.138e-001
289.100   1.142e-001
289.200   1.147e-001
289.300   1.152e-001
289.400   1.156e-001
289.500   1.161e-001
289.600   1.165e-001
289.700   1.170e-001
289.800   1.175e-001
289.900   1.179e-001
290.000   1.184e-001
290.100   1.189e-001
290.200   1.193e-001
290.300   1.198e-001
290.400   1.203e-001
290.500   1.208e-001
290.600   1.212e-001
290.700   1.217e-001
290.800   1.222e-001
290.900   1.227e-001
291.000   1.232e-001
291.100   1.237e-001
291.200   1.241e-001
291.300   1.246e-001
291.400   1.251e-001
291.500   1.256e-001
291.600   1.261e-001
291.700   1.266e-001
291.800   1.271e-001
291.900   1.276e-001
292.000   1.281e-001
292.100   1.286e-001
292.200   1.291e-001
292.300   1.296e-001
292.400   1.301e-001
292.500   1.306e-001
292.600   1.311e-001
292.700   1.316e-001
292.800   1.321e-001
292.900   1.326e-001
293.000   1.331e-001
293.100   1.337e-001
293.200   1.342e-001
293.300   1.347e-001
293.400   1.352e-001
293.500   1.357e-001
293.600   1.362e-001
293.700   1.368e-001
293.800   1.373e-001
293.900   1.378e-001
294.000   1.383e-001
294.100   1.389e-001
294.200   1.394e-001
294.300   1.399e-001
294.400   1.405e-001
294.500   1.410e-001
294.600   1.415e-001
294.700   1.421e-001
294.800   1.426e-001
294.900   1.431e-001
295.000   1.437e-001
295.100   1.442e-001
295.200   1.448e-001
295.300   1.453e-001
295.400   1.459e-001
295.500   1.464e-001
295.600   1.470e-001
295.700   1.475e-001
295.800   1.481e-001
295.900   1.486e-001
296.000   1.492e-001
296.100   1.497e-001
296.200   1.503e-001
296.300   1.509e-001
296.400   1.514e-001
296.500   1.520e-001
296.600   1.526e-001
296.700   1.531e-001
296.800   1.537e-001
296.900   1.543e-001
297.000   1.548e-001
297.100   1.554e-001
297.200   1.560e-001
297.300   1.566e-001
297.400   1.571e-001
297.500   1.577e-001
297.600   1.583e-001
297.700   1.589e-001
297.800   1.595e-001
297.900   1.600e-001
298.000   1.606e-001
298.100   1.612e-001
298.200   1.618e-001
298.300   1.624e-001
298.400   1.630e-001
298.500   1.636e-001
298.600   1.642e-001
298.700   1.648e-001
298.800   1.654e-001
298.900   1.660e-001
299.000   1.666e-001
299.100   1.672e-001
299.200   1.678e-001
299.300   1.684e-001
299.400   1.690e-001
299.500   1.696e-001
299.600   1.702e-001
299.700   1.708e-001
299.800   1.715e-001
299.900   1.721e-001
300.000   1.727e-001
300.100   1.733e-001
300.200   1.739e-001
300.300   1.745e-001
300.400   1.752e-001
300.500   1.758e-001
300.600   1.764e-001
300.700   1.770e-001
300.800   1.777e-001
300.900   1.783e-001
301.000   1.789e-001
301.100   1.795e-001
301.200   1.802e-001
301.300   1.808e-001
301.400   1.814e-001
301.500   1.821e-001
301.600   1.827e-001
301.700   1.834e-001
301.800   1.840e-001
301.900   1.847e-001
302.000   1.853e-001
302.100   1.860e-001
302.200   1.866e-001
302.300   1.873e-001
302.400   1.879e-001
302.500   1.886e-001
302.600   1.892e-001
302.700   1.899e-001
302.800   1.905e-001
302.900   1.912e-001
303.000   1.919e-001
303.100   1.925e-001
303.200   1.932e-001
303.300   1.939e-001
303.400   1.946e-001
303.500   1.952e-001
303.600   1.959e-001
303.700   1.966e-001
303.800   1.973e-001
303.900   1.980e-001
304.000   1.986e-001
304.100   1.993e-001
304.200   2.000e-001
304.300   2.007e-001
304.400   2.014e-001
304.500   2.021e-001
304.600   2.028e-001
304.700   2.035e-001
304.800   2.042e-001
304.900   2.049e-001
305.000   2.056e-001
305.100   2.063e-001
305.200   2.070e-001
305.300   2.077e-001
305.400   2.084e-001
305.500   2.092e-001
305.600   2.099e-001
305.700   2.106e-001
305.800   2.113e-001
305.900   2.120e-001
306.000   2.128e-001
306.100   2.135e-001
306.200   2.142e-001
306.300   2.150e-001
306.400   2.157e-001
306.500   2.164e-001
306.600   2.172e-001
306.700   2.179e-001
306.800   2.186e-001
306.900   2.194e-001
307.000   2.201e-001
307.100   2.209e-001
307.200   2.216e-001
307.300   2.224e-001
307.400   2.231e-001
307.500   2.239e-001
307.600   2.247e-001
307.700   2.254e-001
307.800   2.262e-001
307.900   2.269e-001
308.000   2.277e-001
308.100   2.285e-001
308.200   2.292e-001
308.300   2.300e-001
308.400   2.308e-001
308.500   2.316e-001
308.600   2.324e-001
308.700   2.331e-001
308.800   2.339e-001
308.900   2.347e-001
309.000   2.355e-001
309.100   2.363e-001
309.200   2.371e-001
309.300   2.379e-001
309.400   2.387e-001
309.500   2.395e-001
309.600   2.403e-001
309.700   2.411e-001
309.800   2.419e-001
309.900   2.427e-001
310.000   2.435e-001
310.100   2.443e-001
310.200   2.452e-001
310.300   2.460e-001
310.400   2.468e-001
310.500   2.477e-001
310.600   2.485e-001
310.700   2.493e-001
310.800   2.502e-001
310.900   2.510e-001
311.000   2.519e-001
311.100   2.527e-001
311.200   2.536e-001
311.300   2.544e-001
311.400   2.553e-001
311.500   2.561e-001
311.600   2.570e-001
311.700   2.579e-001
311.800   2.587e-001
311.900   2.596e-001
312.000   2.604e-001
312.100   2.613e-001
312.200   2.622e-001
312.300   2.631e-001
312.400   2.639e-001
312.500   2.648e-001
312.600   2.657e-001
312.700   2.666e-001
312.800   2.674e-001
312.900   2.683e-001
313.000   2.692e-001
313.100   2.701e-001
313.200   2.710e-001
313.300   2.719e-001
313.400   2.728e-001
313.500   2.736e-001
313.600   2.745e-001
313.700   2.754e-001
313.800   2.763e-001
313.900   2.772e-001
314.000   2.781e-001
314.100   2.790e-001
314.200   2.799e-001
314.300   2.808e-001
314.400   2.818e-001
314.500   2.827e-001
314.600   2.836e-001
314.700   2.845e-001
314.800   2.854e-001
314.900   2.863e-001
315.000   2.872e-001
315.100   2.882e-001
315.200   2.891e-001
315.300   2.900e-001
315.400   2.909e-001
315.500   2.919e-001
315.600   2.928e-001
315.700   2.937e-001
315.800   2.947e-001
315.900   2.956e-001
316.000   2.965e-001
316.100   2.975e-001
316.200   2.984e-001
316.300   2.993e-001
316.400   3.003e-001
316.500   3.012e-001
316.600   3.022e-001
316.700   3.031e-001
316.800   3.041e-001
316.900   3.050e-001
317.000   3.060e-001
317.100   3.069e-001
317.200   3.079e-001
317.300   3.089e-001
317.400   3.098e-001
317.500   3.108e-001
317.600   3.117e-001
317.700   3.127e-001
317.800   3.137e-001
317.900   3.146e-001
318.000   3.156e-001
318.100   3.166e-001
318.200   3.176e-001
318.300   3.185e-001
318.400   3.195e-001
318.500   3.205e-001
318.600   3.215e-001
318.700   3.225e-001
318.800   3.234e-001
318.900   3.244e-001
319.000   3.254e-001
319.100   3.264e-001
319.200   3.274e-001
319.300   3.284e-001
319.400   3.294e-001
319.500   3.304e-001
319.600   3.314e-001
319.700   3.324e-001
319.800   3.334e-001
319.900   3.344e-001
320.000   3.354e-001
320.100   3.364e-001
320.200   3.374e-001
320.300   3.384e-001
320.400   3.393e-001
320.500   3.403e-001
320.600   3.413e-001
320.700   3.423e-001
320.800   3.433e-001
320.900   3.443e-001
321.000   3.453e-001
321.100   3.463e-001
321.200   3.473e-001
321.300   3.483e-001
321.400   3.494e-001
321.500   3.504e-001
321.600   3.514e-001
321.700   3.524e-001
321.800   3.534e-001
321.900   3.545e-001
322.000   3.555e-001
322.100   3.565e-001
322.200   3.575e-001
322.300   3.586e-001
322.400   3.596e-001
322.500   3.606e-001
322.600   3.617e-001
322.700   3.627e-001
322.800   3.638e-001
322.900   3.648e-001
323.000   3.659e-001
323.100   3.669e-001
323.200   3.680e-001
323.300   3.690e-001
323.400   3.701e-001
323.500   3.712e-001
323.600   3.722e-001
323.700   3.733e-001
323.800   3.744e-001
323.900   3.755e-001
324.000   3.765e-001
324.100   3.776e-001
324.200   3.787e-001
324.300   3.798e-001
324.400   3.809e-001
324.500   3.820e-001
324.600   3.831e-001
324.700   3.842e-001
324.800   3.853e-001
324.900   3.864e-001
325.000   3.875e-001
325.100   3.886e-001
325.200   3.897e-001
325.300   3.908e-001
325.400   3.919e-001
325.500   3.930e-001
325.600   3.942e-001
325.700   3.953e-001
325.800   3.964e-001
325.900   3.976e-001
326.000   3.987e-001
326.100   3.998e-001
326.200   4.010e-001
326.300   4.021e-001
326.400   4.033e-001
326.500   4.044e-001
326.600   4.056e-001
326.700   4.067e-001
326.800   4.079e-001
326.900   4.091e-001
327.000   4.102e-001
327.100   4.114e-001
327.200   4.126e-001
327.300   4.137e-001
327.400   4.149e-001
327.500   4.161e-001
327.600   4.173e-001
327.700   4.185e-001
327.800   4.197e-001
327.900   4.209e-001
328.000   4.221e-001
328.100   4.233e-001
328.200   4.245e-001
328.300   4.257e-001
328.400   4.269e-001
328.500   4.281e-001
328.600   4.293e-001
328.700   4.305e-001
328.800   4.318e-001
328.900   4.330e-001
329.000   4.342e-001
329.100   4.355e-001
329.200   4.367e-001
329.300   4.379e-001
329.400   4.392e-001
329.500   4.404e-001
329.600   4.417e-001
329.700   4.429e-001
329.800   4.442e-001
329.900   4.454e-001
330.000   4.467e-001
330.100   4.480e-001
330.200   4.493e-001
330.300   4.506e-001
330.400   4.519e-001
330.500   4.532e-001
330.600   4.545e-001
330.700   4.558e-001
330.800   4.571e-001
330.900   4.584e-001
331.000   4.597e-001
331.100   4.610e-001
331.200   4.623e-001
331.300   4.637e-001
331.400   4.650e-001
331.500   4.663e-001
331.600   4.676e-001
331.700   4.690e-001
331.800   4.703e-001
331.900   4.717e-001
332.000   4.730e-001
332.100   4.743e-001
332.200   4.757e-001
332.300   4.770e-001
332.400   4.784e-001
332.500   4.798e-001
332.600   4.811e-001
332.700   4.825e-001
332.800   4.838e-001
332.900   4.852e-001
333.000   4.866e-001
333.100   4.880e-001
333.200   4.893e-001
333.300   4.907e-001
333.400   4.921e-001
333.500   4.935e-001
333.600   4.949e-001
333.700   4.963e-001
333.800   4.977e-001
333.900   4.991e-001
334.000   5.005e-001
334.100   5.019e-001
334.200   5.033e-001
334.300   5.047e-001
334.400   5.061e-001
334.500   5.075e-001
334.600   5.089e-001
334.700   5.103e-001
334.800   5.118e-001
334.900   5.132e-001
335.000   5.146e-001
335.100   5.161e-001
335.200   5.175e-001
335.300   5.189e-001
335.400   5.204e-001
335.500   5.218e-001
335.600   5.233e-001
335.700   5.247e-001
335.800   5.262e-001
335.900   5.276e-001
336.000   5.291e-001
336.100   5.305e-001
336.200   5.320e-001
336.300   5.334e-001
336.400   5.349e-001
336.500   5.364e-001
336.600   5.379e-001
336.700   5.393e-001
336.800   5.408e-001
336.900   5.423e-001
337.000   5.438e-001
337.100   5.453e-001
337.200   5.467e-001
337.300   5.482e-001
337.400   5.497e-001
337.500   5.512e-001
337.600   5.527e-001
337.700   5.542e-001
337.800   5.557e-001
337.900   5.572e-001
338.000   5.588e-001
338.100   5.603e-001
338.200   5.618e-001
338.300   5.633e-001
338.400   5.648e-001
338.500   5.663e-001
338.600   5.679e-001
338.700   5.694e-001
338.800   5.709e-001
338.900   5.725e-001
339.000   5.740e-001
339.100   5.755e-001
339.200   5.771e-001
339.300   5.786e-001
339.400   5.802e-001
339.500   5.817e-001
339.600   5.833e-001
339.700   5.848e-001
339.800   5.864e-001
339.900   5.879e-001
340.000   5.895e-001
340.100   5.911e-001
340.200   5.926e-001
340.300   5.942e-001
340.400   5.958e-001
