Date:15 Nov 2022 22:16:26 GMT
 wavelen   Irradiance
   (nm)   uW/cm^2/nm
250.000   1.832e-002
250.100   1.843e-002
250.200   1.855e-002
250.300   1.866e-002
250.400   1.877e-002
250.500   1.889e-002
250.600   1.900e-002
250.700   1.912e-002
250.800   1.924e-002
250.900   1.936e-002
251.000   1.947e-002
251.100   1.959e-002
251.200   1.971e-002
251.300   1.983e-002
251.400   1.995e-002
251.500   2.007e-002
251.600   2.020e-002
251.700   2.032e-002
251.800   2.044e-002
251.900   2.057e-002
252.000   2.069e-002
252.100   2.082e-002
252.200   2.094e-002
252.300   2.107e-002
252.400   2.120e-002
252.500   2.132e-002
252.600   2.145e-002
252.700   2.158e-002
252.800   2.171e-002
252.900   2.184e-002
253.000   2.197e-002
253.100   2.211e-002
253.200   2.224e-002
253.300   2.237e-002
253.400   2.250e-002
253.500   2.264e-002
253.600   2.277e-002
253.700   2.291e-002
253.800   2.305e-002
253.900   2.318e-002
254.000   2.332e-002
254.100   2.346e-002
254.200   2.360e-002
254.300   2.374e-002
254.400   2.388e-002
254.500   2.402e-002
254.600   2.416e-002
254.700   2.431e-002
254.800   2.445e-002
254.900   2.459e-002
255.000   2.474e-002
255.100   2.488e-002
255.200   2.503e-002
255.300   2.518e-002
255.400   2.532e-002
255.500   2.547e-002
255.600   2.562e-002
255.700   2.577e-002
255.800   2.592e-002
255.900   2.607e-002
256.000   2.622e-002
256.100   2.638e-002
256.200   2.653e-002
256.300   2.668e-002
256.400   2.684e-002
256.500   2.699e-002
256.600   2.715e-002
256.700   2.730e-002
256.800   2.746e-002
256.900   2.762e-002
257.000   2.778e-002
257.100   2.794e-002
257.200   2.810e-002
257.300   2.826e-002
257.400   2.842e-002
257.500   2.858e-002
257.600   2.875e-002
257.700   2.891e-002
257.800   2.907e-002
257.900   2.924e-002
258.000   2.941e-002
258.100   2.957e-002
258.200   2.974e-002
258.300   2.991e-002
258.400   3.008e-002
258.500   3.025e-002
258.600   3.042e-002
258.700   3.059e-002
258.800   3.076e-002
258.900   3.093e-002
259.000   3.111e-002
259.100   3.128e-002
259.200   3.145e-002
259.300   3.163e-002
259.400   3.181e-002
259.500   3.198e-002
259.600   3.216e-002
259.700   3.234e-002
259.800   3.252e-002
259.900   3.270e-002
260.000   3.288e-002
260.100   3.306e-002
260.200   3.324e-002
260.300   3.343e-002
260.400   3.361e-002
260.500   3.380e-002
260.600   3.398e-002
260.700   3.417e-002
260.800   3.435e-002
260.900   3.454e-002
261.000   3.473e-002
261.100   3.492e-002
261.200   3.511e-002
261.300   3.530e-002
261.400   3.549e-002
261.500   3.569e-002
261.600   3.588e-002
261.700   3.607e-002
261.800   3.627e-002
261.900   3.646e-002
262.000   3.666e-002
262.100   3.686e-002
262.200   3.706e-002
262.300   3.726e-002
262.400   3.746e-002
262.500   3.766e-002
262.600   3.786e-002
262.700   3.806e-002
262.800   3.826e-002
262.900   3.847e-002
263.000   3.867e-002
263.100   3.888e-002
263.200   3.908e-002
263.300   3.929e-002
263.400   3.950e-002
263.500   3.971e-002
263.600   3.992e-002
263.700   4.013e-002
263.800   4.034e-002
263.900   4.055e-002
264.000   4.076e-002
264.100   4.098e-002
264.200   4.119e-002
264.300   4.141e-002
264.400   4.162e-002
264.500   4.184e-002
264.600   4.206e-002
264.700   4.228e-002
264.800   4.250e-002
264.900   4.272e-002
265.000   4.294e-002
265.100   4.316e-002
265.200   4.338e-002
265.300   4.361e-002
265.400   4.383e-002
265.500   4.406e-002
265.600   4.428e-002
265.700   4.451e-002
265.800   4.474e-002
265.900   4.497e-002
266.000   4.520e-002
266.100   4.543e-002
266.200   4.566e-002
266.300   4.590e-002
266.400   4.613e-002
266.500   4.636e-002
266.600   4.660e-002
266.700   4.684e-002
266.800   4.707e-002
266.900   4.731e-002
267.000   4.755e-002
267.100   4.779e-002
267.200   4.803e-002
267.300   4.827e-002
267.400   4.851e-002
267.500   4.876e-002
267.600   4.900e-002
267.700   4.925e-002
267.800   4.949e-002
267.900   4.974e-002
268.000   4.999e-002
268.100   5.024e-002
268.200   5.049e-002
268.300   5.074e-002
268.400   5.099e-002
268.500   5.124e-002
268.600   5.150e-002
268.700   5.175e-002
268.800   5.201e-002
268.900   5.227e-002
269.000   5.252e-002
269.100   5.278e-002
269.200   5.304e-002
269.300   5.330e-002
269.400   5.356e-002
269.500   5.382e-002
269.600   5.409e-002
269.700   5.435e-002
269.800   5.462e-002
269.900   5.488e-002
270.000   5.515e-002
270.100   5.542e-002
270.200   5.569e-002
270.300   5.595e-002
270.400   5.622e-002
270.500   5.650e-002
270.600   5.677e-002
270.700   5.704e-002
270.800   5.731e-002
270.900   5.759e-002
271.000   5.787e-002
271.100   5.814e-002
271.200   5.842e-002
271.300   5.870e-002
271.400   5.898e-002
271.500   5.926e-002
271.600   5.954e-002
271.700   5.983e-002
271.800   6.011e-002
271.900   6.040e-002
272.000   6.068e-002
272.100   6.097e-002
272.200   6.126e-002
272.300   6.155e-002
272.400   6.184e-002
272.500   6.213e-002
272.600   6.242e-002
272.700   6.272e-002
272.800   6.301e-002
272.900   6.331e-002
273.000   6.360e-002
273.100   6.390e-002
273.200   6.420e-002
273.300   6.450e-002
273.400   6.480e-002
273.500   6.510e-002
273.600   6.541e-002
273.700   6.571e-002
273.800   6.602e-002
273.900   6.632e-002
274.000   6.663e-002
274.100   6.694e-002
274.200   6.725e-002
274.300   6.756e-002
274.400   6.787e-002
274.500   6.819e-002
274.600   6.850e-002
274.700   6.882e-002
274.800   6.913e-002
274.900   6.945e-002
275.000   6.977e-002
275.100   7.009e-002
275.200   7.041e-002
275.300   7.073e-002
275.400   7.106e-002
275.500   7.138e-002
275.600   7.171e-002
275.700   7.203e-002
275.800   7.236e-002
275.900   7.269e-002
276.000   7.302e-002
276.100   7.335e-002
276.200   7.368e-002
276.300   7.402e-002
276.400   7.435e-002
276.500   7.469e-002
276.600   7.502e-002
276.700   7.536e-002
276.800   7.570e-002
276.900   7.604e-002
277.000   7.639e-002
277.100   7.673e-002
277.200   7.707e-002
277.300   7.742e-002
277.400   7.776e-002
277.500   7.811e-002
277.600   7.846e-002
277.700   7.881e-002
277.800   7.916e-002
277.900   7.951e-002
278.000   7.987e-002
278.100   8.022e-002
278.200   8.058e-002
278.300   8.094e-002
278.400   8.130e-002
278.500   8.166e-002
278.600   8.202e-002
278.700   8.238e-002
278.800   8.274e-002
278.900   8.311e-002
279.000   8.347e-002
279.100   8.384e-002
279.200   8.421e-002
279.300   8.458e-002
279.400   8.495e-002
279.500   8.532e-002
279.600   8.569e-002
279.700   8.607e-002
279.800   8.644e-002
279.900   8.682e-002
280.000   8.720e-002
280.100   8.758e-002
280.200   8.796e-002
280.300   8.835e-002
280.400   8.873e-002
280.500   8.912e-002
280.600   8.950e-002
280.700   8.989e-002
280.800   9.028e-002
280.900   9.067e-002
281.000   9.106e-002
281.100   9.146e-002
281.200   9.185e-002
281.300   9.225e-002
281.400   9.264e-002
281.500   9.304e-002
281.600   9.344e-002
281.700   9.384e-002
281.800   9.425e-002
281.900   9.465e-002
282.000   9.505e-002
282.100   9.546e-002
282.200   9.587e-002
282.300   9.628e-002
282.400   9.669e-002
282.500   9.710e-002
282.600   9.751e-002
282.700   9.792e-002
282.800   9.834e-002
282.900   9.876e-002
283.000   9.917e-002
283.100   9.959e-002
283.200   1.000e-001
283.300   1.004e-001
283.400   1.009e-001
283.500   1.013e-001
283.600   1.017e-001
283.700   1.021e-001
283.800   1.026e-001
283.900   1.030e-001
284.000   1.034e-001
284.100   1.039e-001
284.200   1.043e-001
284.300   1.047e-001
284.400   1.052e-001
284.500   1.056e-001
284.600   1.060e-001
284.700   1.065e-001
284.800   1.069e-001
284.900   1.074e-001
285.000   1.078e-001
285.100   1.083e-001
285.200   1.087e-001
285.300   1.091e-001
285.400   1.096e-001
285.500   1.100e-001
285.600   1.105e-001
285.700   1.110e-001
285.800   1.114e-001
285.900   1.119e-001
286.000   1.123e-001
286.100   1.128e-001
286.200   1.132e-001
286.300   1.137e-001
286.400   1.142e-001
286.500   1.146e-001
286.600   1.151e-001
286.700   1.156e-001
286.800   1.160e-001
286.900   1.165e-001
287.000   1.170e-001
287.100   1.175e-001
287.200   1.179e-001
287.300   1.184e-001
287.400   1.189e-001
287.500   1.194e-001
287.600   1.198e-001
287.700   1.203e-001
287.800   1.208e-001
287.900   1.213e-001
288.000   1.218e-001
288.100   1.223e-001
288.200   1.228e-001
288.300   1.232e-001
288.400   1.237e-001
288.500   1.242e-001
288.600   1.247e-001
288.700   1.252e-001
288.800   1.257e-001
288.900   1.262e-001
289.000   1.267e-001
289.100   1.272e-001
289.200   1.277e-001
289.300   1.282e-001
289.400   1.287e-001
289.500   1.292e-001
289.600   1.297e-001
289.700   1.303e-001
289.800   1.308e-001
289.900   1.313e-001
290.000   1.318e-001
290.100   1.323e-001
290.200   1.328e-001
290.300   1.334e-001
290.400   1.339e-001
290.500   1.344e-001
290.600   1.349e-001
290.700   1.354e-001
290.800   1.360e-001
290.900   1.365e-001
291.000   1.370e-001
291.100   1.376e-001
291.200   1.381e-001
291.300   1.386e-001
291.400   1.392e-001
291.500   1.397e-001
291.600   1.402e-001
291.700   1.408e-001
291.800   1.413e-001
291.900   1.419e-001
292.000   1.424e-001
292.100   1.430e-001
292.200   1.435e-001
292.300   1.441e-001
292.400   1.446e-001
292.500   1.452e-001
292.600   1.457e-001
292.700   1.463e-001
292.800   1.468e-001
292.900   1.474e-001
293.000   1.479e-001
293.100   1.485e-001
293.200   1.491e-001
293.300   1.496e-001
293.400   1.502e-001
293.500   1.508e-001
293.600   1.513e-001
293.700   1.519e-001
293.800   1.525e-001
293.900   1.531e-001
294.000   1.536e-001
294.100   1.542e-001
294.200   1.548e-001
294.300   1.554e-001
294.400   1.560e-001
294.500   1.565e-001
294.600   1.571e-001
294.700   1.577e-001
294.800   1.583e-001
294.900   1.589e-001
295.000   1.595e-001
295.100   1.601e-001
295.200   1.607e-001
295.300   1.613e-001
295.400   1.619e-001
295.500   1.625e-001
295.600   1.631e-001
295.700   1.637e-001
295.800   1.643e-001
295.900   1.649e-001
296.000   1.655e-001
296.100   1.661e-001
296.200   1.667e-001
296.300   1.674e-001
296.400   1.680e-001
296.500   1.686e-001
296.600   1.692e-001
296.700   1.698e-001
296.800   1.704e-001
296.900   1.711e-001
297.000   1.717e-001
297.100   1.723e-001
297.200   1.730e-001
297.300   1.736e-001
297.400   1.742e-001
297.500   1.749e-001
297.600   1.755e-001
297.700   1.761e-001
297.800   1.768e-001
297.900   1.774e-001
298.000   1.781e-001
298.100   1.787e-001
298.200   1.794e-001
298.300   1.800e-001
298.400   1.806e-001
298.500   1.813e-001
298.600   1.820e-001
298.700   1.826e-001
298.800   1.833e-001
298.900   1.839e-001
299.000   1.846e-001
299.100   1.853e-001
299.200   1.859e-001
299.300   1.866e-001
299.400   1.873e-001
299.500   1.879e-001
299.600   1.886e-001
299.700   1.893e-001
299.800   1.899e-001
299.900   1.906e-001
300.000   1.913e-001
300.100   1.920e-001
300.200   1.927e-001
300.300   1.933e-001
300.400   1.940e-001
300.500   1.947e-001
300.600   1.954e-001
300.700   1.961e-001
300.800   1.968e-001
300.900   1.975e-001
301.000   1.982e-001
301.100   1.989e-001
301.200   1.996e-001
301.300   2.003e-001
301.400   2.010e-001
301.500   2.017e-001
301.600   2.024e-001
301.700   2.031e-001
301.800   2.038e-001
301.900   2.045e-001
302.000   2.052e-001
302.100   2.059e-001
302.200   2.067e-001
302.300   2.074e-001
302.400   2.081e-001
302.500   2.088e-001
302.600   2.096e-001
302.700   2.103e-001
302.800   2.110e-001
302.900   2.117e-001
303.000   2.125e-001
303.100   2.132e-001
303.200   2.140e-001
303.300   2.147e-001
303.400   2.154e-001
303.500   2.162e-001
303.600   2.169e-001
303.700   2.177e-001
303.800   2.184e-001
303.900   2.192e-001
304.000   2.199e-001
304.100   2.207e-001
304.200   2.214e-001
304.300   2.222e-001
304.400   2.230e-001
304.500   2.237e-001
304.600   2.245e-001
304.700   2.253e-001
304.800   2.260e-001
304.900   2.268e-001
305.000   2.276e-001
305.100   2.284e-001
305.200   2.291e-001
305.300   2.299e-001
305.400   2.307e-001
305.500   2.315e-001
305.600   2.323e-001
305.700   2.331e-001
305.800   2.339e-001
305.900   2.346e-001
306.000   2.354e-001
306.100   2.362e-001
306.200   2.370e-001
306.300   2.378e-001
306.400   2.386e-001
306.500   2.394e-001
306.600   2.403e-001
306.700   2.411e-001
306.800   2.419e-001
306.900   2.427e-001
307.000   2.435e-001
307.100   2.443e-001
307.200   2.451e-001
307.300   2.460e-001
307.400   2.468e-001
307.500   2.476e-001
307.600   2.485e-001
307.700   2.493e-001
307.800   2.501e-001
307.900   2.510e-001
308.000   2.518e-001
308.100   2.526e-001
308.200   2.535e-001
308.300   2.543e-001
308.400   2.552e-001
308.500   2.560e-001
308.600   2.569e-001
308.700   2.577e-001
308.800   2.586e-001
308.900   2.594e-001
309.000   2.603e-001
309.100   2.611e-001
309.200   2.620e-001
309.300   2.629e-001
309.400   2.637e-001
309.500   2.646e-001
309.600   2.655e-001
309.700   2.664e-001
309.800   2.672e-001
309.900   2.681e-001
310.000   2.690e-001
310.100   2.699e-001
310.200   2.708e-001
310.300   2.717e-001
310.400   2.726e-001
310.500   2.735e-001
310.600   2.744e-001
310.700   2.753e-001
310.800   2.762e-001
310.900   2.771e-001
311.000   2.780e-001
311.100   2.789e-001
311.200   2.798e-001
311.300   2.807e-001
311.400   2.816e-001
311.500   2.826e-001
311.600   2.835e-001
311.700   2.844e-001
311.800   2.853e-001
311.900   2.863e-001
312.000   2.872e-001
312.100   2.881e-001
312.200   2.891e-001
312.300   2.900e-001
312.400   2.909e-001
312.500   2.919e-001
312.600   2.928e-001
312.700   2.938e-001
312.800   2.947e-001
312.900   2.957e-001
313.000   2.966e-001
313.100   2.976e-001
313.200   2.985e-001
313.300   2.995e-001
313.400   3.004e-001
313.500   3.014e-001
313.600   3.024e-001
313.700   3.033e-001
313.800   3.043e-001
313.900   3.053e-001
314.000   3.062e-001
314.100   3.072e-001
314.200   3.082e-001
314.300   3.092e-001
314.400   3.102e-001
314.500   3.111e-001
314.600   3.121e-001
314.700   3.131e-001
314.800   3.141e-001
314.900   3.151e-001
315.000   3.161e-001
315.100   3.171e-001
315.200   3.181e-001
315.300   3.191e-001
315.400   3.201e-001
315.500   3.211e-001
315.600   3.221e-001
315.700   3.231e-001
315.800   3.242e-001
315.900   3.252e-001
316.000   3.262e-001
316.100   3.272e-001
316.200   3.282e-001
316.300   3.293e-001
316.400   3.303e-001
316.500   3.313e-001
316.600   3.323e-001
316.700   3.334e-001
316.800   3.344e-001
316.900   3.355e-001
317.000   3.365e-001
317.100   3.375e-001
317.200   3.386e-001
317.300   3.396e-001
317.400   3.407e-001
317.500   3.417e-001
317.600   3.428e-001
317.700   3.438e-001
317.800   3.449e-001
317.900   3.460e-001
318.000   3.470e-001
318.100   3.481e-001
318.200   3.492e-001
318.300   3.502e-001
318.400   3.513e-001
318.500   3.524e-001
318.600   3.535e-001
318.700   3.545e-001
318.800   3.556e-001
318.900   3.567e-001
319.000   3.578e-001
319.100   3.589e-001
319.200   3.600e-001
319.300   3.611e-001
319.400   3.622e-001
319.500   3.633e-001
319.600   3.644e-001
319.700   3.655e-001
319.800   3.666e-001
319.900   3.677e-001
320.000   3.688e-001
320.100   3.699e-001
320.200   3.710e-001
320.300   3.721e-001
320.400   3.732e-001
320.500   3.744e-001
320.600   3.755e-001
320.700   3.766e-001
320.800   3.777e-001
320.900   3.788e-001
321.000   3.800e-001
321.100   3.811e-001
321.200   3.822e-001
321.300   3.834e-001
321.400   3.845e-001
321.500   3.856e-001
321.600   3.868e-001
321.700   3.879e-001
321.800   3.891e-001
321.900   3.902e-001
322.000   3.914e-001
322.100   3.925e-001
322.200   3.937e-001
322.300   3.949e-001
322.400   3.960e-001
322.500   3.972e-001
322.600   3.984e-001
322.700   3.995e-001
322.800   4.007e-001
322.900   4.019e-001
323.000   4.031e-001
323.100   4.043e-001
323.200   4.054e-001
323.300   4.066e-001
323.400   4.078e-001
323.500   4.090e-001
323.600   4.102e-001
323.700   4.114e-001
323.800   4.126e-001
323.900   4.138e-001
324.000   4.150e-001
324.100   4.162e-001
324.200   4.174e-001
324.300   4.187e-001
324.400   4.199e-001
324.500   4.211e-001
324.600   4.223e-001
324.700   4.235e-001
324.800   4.248e-001
324.900   4.260e-001
325.000   4.272e-001
325.100   4.285e-001
325.200   4.297e-001
325.300   4.310e-001
325.400   4.322e-001
325.500   4.335e-001
325.600   4.347e-001
325.700   4.360e-001
325.800   4.372e-001
325.900   4.385e-001
326.000   4.397e-001
326.100   4.410e-001
326.200   4.423e-001
326.300   4.435e-001
326.400   4.448e-001
326.500   4.461e-001
326.600   4.474e-001
326.700   4.486e-001
326.800   4.499e-001
326.900   4.512e-001
327.000   4.525e-001
327.100   4.538e-001
327.200   4.551e-001
327.300   4.564e-001
327.400   4.577e-001
327.500   4.590e-001
327.600   4.603e-001
327.700   4.616e-001
327.800   4.629e-001
327.900   4.643e-001
328.000   4.656e-001
328.100   4.669e-001
328.200   4.682e-001
328.300   4.696e-001
328.400   4.709e-001
328.500   4.722e-001
328.600   4.736e-001
328.700   4.749e-001
328.800   4.762e-001
328.900   4.776e-001
329.000   4.789e-001
329.100   4.803e-001
329.200   4.817e-001
329.300   4.830e-001
329.400   4.844e-001
329.500   4.857e-001
329.600   4.871e-001
329.700   4.885e-001
329.800   4.898e-001
329.900   4.912e-001
330.000   4.926e-001
330.100   4.940e-001
330.200   4.954e-001
330.300   4.968e-001
330.400   4.982e-001
330.500   4.996e-001
330.600   5.010e-001
330.700   5.024e-001
330.800   5.038e-001
330.900   5.052e-001
331.000   5.066e-001
331.100   5.080e-001
331.200   5.094e-001
331.300   5.108e-001
331.400   5.123e-001
331.500   5.137e-001
331.600   5.151e-001
331.700   5.166e-001
331.800   5.180e-001
331.900   5.194e-001
332.000   5.209e-001
332.100   5.223e-001
332.200   5.238e-001
332.300   5.252e-001
332.400   5.267e-001
332.500   5.281e-001
332.600   5.296e-001
332.700   5.311e-001
332.800   5.325e-001
332.900   5.340e-001
333.000   5.355e-001
333.100   5.369e-001
333.200   5.384e-001
333.300   5.399e-001
333.400   5.414e-001
333.500   5.429e-001
333.600   5.444e-001
333.700   5.458e-001
333.800   5.473e-001
333.900   5.488e-001
334.000   5.503e-001
334.100   5.519e-001
334.200   5.534e-001
334.300   5.549e-001
334.400   5.564e-001
334.500   5.579e-001
334.600   5.594e-001
334.700   5.609e-001
334.800   5.625e-001
334.900   5.640e-001
335.000   5.655e-001
335.100   5.671e-001
335.200   5.686e-001
335.300   5.701e-001
335.400   5.717e-001
335.500   5.732e-001
335.600   5.748e-001
335.700   5.763e-001
335.800   5.779e-001
335.900   5.795e-001
336.000   5.810e-001
336.100   5.826e-001
336.200   5.842e-001
336.300   5.857e-001
336.400   5.873e-001
336.500   5.889e-001
336.600   5.905e-001
336.700   5.920e-001
336.800   5.936e-001
336.900   5.952e-001
337.000   5.968e-001
337.100   5.984e-001
337.200   6.000e-001
337.300   6.016e-001
337.400   6.032e-001
337.500   6.048e-001
337.600   6.064e-001
337.700   6.080e-001
337.800   6.097e-001
337.900   6.113e-001
338.000   6.129e-001
338.100   6.145e-001
338.200   6.162e-001
338.300   6.178e-001
338.400   6.194e-001
338.500   6.211e-001
338.600   6.227e-001
338.700   6.243e-001
338.800   6.260e-001
338.900   6.276e-001
339.000   6.293e-001
339.100   6.310e-001
339.200   6.326e-001
339.300   6.343e-001
339.400   6.359e-001
339.500   6.376e-001
339.600   6.393e-001
339.700   6.410e-001
339.800   6.426e-001
339.900   6.443e-001
340.000   6.460e-001
340.100   6.477e-001
340.200   6.494e-001
340.300   6.511e-001
340.400   6.528e-001
